Test_Time,2025-10-30 12:21:52
Well,E6
Target_Z(mm),-80.000
Step_Size(mm),0.010
Force_Limit(N),10.0
Baseline_Force(N),0.108
Baseline_Std(N),0.005
Force_Exceeded,True

Timestamp(s),Z_Position(mm),Raw_Force(N),Corrected_Force(N)
1761841271.603,-74.010,0.110,0.002
1761841271.726,-74.020,0.112,0.004
1761841271.849,-74.030,0.110,0.002
1761841271.976,-74.040,0.112,0.004
1761841272.100,-74.050,0.104,-0.004
1761841272.221,-74.060,0.114,0.006
1761841272.348,-74.070,0.110,0.002
1761841272.471,-74.080,0.110,0.002
1761841272.591,-74.090,0.121,0.013
1761841272.713,-74.100,0.116,0.009
1761841272.835,-74.110,0.118,0.011
1761841272.961,-74.120,0.110,0.002
1761841273.084,-74.130,0.116,0.009
1761841273.207,-74.140,0.118,0.011
1761841273.330,-74.150,0.121,0.013
1761841273.450,-74.160,0.123,0.015
1761841273.576,-74.170,0.116,0.009
1761841273.700,-74.180,0.110,0.002
1761841273.822,-74.190,0.114,0.006
1761841273.944,-74.200,0.112,0.004
1761841274.064,-74.210,0.127,0.019
1761841274.190,-74.220,0.110,0.002
1761841274.313,-74.230,0.112,0.004
1761841274.433,-74.240,0.116,0.009
1761841274.556,-74.250,0.118,0.011
1761841274.681,-74.260,0.121,0.013
1761841274.806,-74.270,0.121,0.013
1761841274.927,-74.280,0.123,0.015
1761841275.047,-74.290,0.127,0.019
1761841275.170,-74.300,0.118,0.011
1761841275.292,-74.310,0.125,0.017
1761841275.424,-74.320,0.123,0.015
1761841275.555,-74.330,0.121,0.013
1761841275.676,-74.340,0.118,0.011
1761841275.796,-74.350,0.118,0.011
1761841275.917,-74.360,0.114,0.006
1761841276.043,-74.370,0.125,0.017
1761841276.171,-74.380,0.127,0.019
1761841276.292,-74.390,0.123,0.015
1761841276.414,-74.400,0.129,0.021
1761841276.535,-74.410,0.118,0.011
1761841276.662,-74.420,0.127,0.019
1761841276.785,-74.430,0.125,0.017
1761841276.908,-74.440,0.125,0.017
1761841277.031,-74.450,0.133,0.025
1761841277.154,-74.460,0.125,0.017
1761841277.281,-74.470,0.121,0.013
1761841277.403,-74.480,0.129,0.021
1761841277.523,-74.490,0.129,0.021
1761841277.645,-74.500,0.137,0.029
1761841277.766,-74.510,0.131,0.023
1761841277.892,-74.520,0.131,0.023
1761841278.016,-74.530,0.131,0.023
1761841278.138,-74.540,0.125,0.017
1761841278.262,-74.550,0.141,0.033
1761841278.383,-74.560,0.139,0.031
1761841278.509,-74.570,0.129,0.021
1761841278.631,-74.580,0.137,0.029
1761841278.753,-74.590,0.139,0.031
1761841278.875,-74.600,0.135,0.027
1761841278.997,-74.610,0.143,0.035
1761841279.124,-74.620,0.139,0.031
1761841279.249,-74.630,0.135,0.027
1761841279.371,-74.640,0.137,0.029
1761841279.491,-74.650,0.141,0.033
1761841279.611,-74.660,0.145,0.038
1761841279.737,-74.670,0.143,0.035
1761841279.858,-74.680,0.141,0.033
1761841279.979,-74.690,0.133,0.025
1761841280.101,-74.700,0.143,0.035
1761841280.222,-74.710,0.145,0.038
1761841280.348,-74.720,0.141,0.033
1761841280.471,-74.730,0.148,0.040
1761841280.591,-74.740,0.143,0.035
1761841280.713,-74.750,0.145,0.038
1761841280.835,-74.760,0.145,0.038
1761841280.962,-74.770,0.145,0.038
1761841281.084,-74.780,0.148,0.040
1761841281.204,-74.790,0.150,0.042
1761841281.325,-74.800,0.150,0.042
1761841281.446,-74.810,0.148,0.040
1761841281.572,-74.820,0.148,0.040
1761841281.694,-74.830,0.156,0.048
1761841281.814,-74.840,0.150,0.042
1761841281.936,-74.850,0.162,0.054
1761841282.056,-74.860,0.154,0.046
1761841282.181,-74.870,0.145,0.038
1761841282.304,-74.880,0.154,0.046
1761841282.425,-74.890,0.158,0.050
1761841282.547,-74.900,0.154,0.046
1761841282.669,-74.910,0.152,0.044
1761841282.796,-74.920,0.156,0.048
1761841282.920,-74.930,0.154,0.046
1761841283.040,-74.940,0.150,0.042
1761841283.162,-74.950,0.154,0.046
1761841283.283,-74.960,0.156,0.048
1761841283.410,-74.970,0.162,0.054
1761841283.533,-74.980,0.160,0.052
1761841283.654,-74.990,0.154,0.046
1761841283.778,-75.000,0.158,0.050
1761841283.909,-75.010,0.158,0.050
1761841284.035,-75.020,0.158,0.050
1761841284.158,-75.030,0.164,0.056
1761841284.279,-75.040,0.160,0.052
1761841284.401,-75.050,0.164,0.056
1761841284.524,-75.060,0.158,0.050
1761841284.649,-75.070,0.162,0.054
1761841284.771,-75.080,0.164,0.056
1761841284.892,-75.090,0.162,0.054
1761841285.015,-75.100,0.164,0.056
1761841285.137,-75.110,0.160,0.052
1761841285.266,-75.120,0.160,0.052
1761841285.390,-75.130,0.164,0.056
1761841285.511,-75.140,0.168,0.060
1761841285.634,-75.150,0.166,0.058
1761841285.758,-75.160,0.162,0.054
1761841285.885,-75.170,0.168,0.060
1761841286.009,-75.180,0.166,0.058
1761841286.131,-75.190,0.166,0.058
1761841286.254,-75.200,0.168,0.060
1761841286.376,-75.210,0.166,0.058
1761841286.502,-75.220,0.168,0.060
1761841286.624,-75.230,0.166,0.058
1761841286.745,-75.240,0.164,0.056
1761841286.867,-75.250,0.164,0.056
1761841286.988,-75.260,0.174,0.067
1761841287.115,-75.270,0.166,0.058
1761841287.238,-75.280,0.172,0.065
1761841287.360,-75.290,0.164,0.056
1761841287.482,-75.300,0.168,0.060
1761841287.604,-75.310,0.168,0.060
1761841287.731,-75.320,0.174,0.067
1761841287.853,-75.330,0.170,0.062
1761841287.975,-75.340,0.172,0.065
1761841288.099,-75.350,0.168,0.060
1761841288.223,-75.360,0.170,0.062
1761841288.351,-75.370,0.181,0.073
1761841288.473,-75.380,0.174,0.067
1761841288.600,-75.390,0.168,0.060
1761841288.722,-75.400,0.172,0.065
1761841288.843,-75.410,0.177,0.069
1761841288.980,-75.420,0.181,0.073
1761841289.102,-75.430,0.172,0.065
1761841289.222,-75.440,0.172,0.065
1761841289.345,-75.450,0.181,0.073
1761841289.466,-75.460,0.177,0.069
1761841289.593,-75.470,0.177,0.069
1761841289.714,-75.480,0.185,0.077
1761841289.835,-75.490,0.179,0.071
1761841289.959,-75.500,0.177,0.069
1761841290.080,-75.510,0.174,0.067
1761841290.208,-75.520,0.179,0.071
1761841290.330,-75.530,0.172,0.065
1761841290.450,-75.540,0.185,0.077
1761841290.572,-75.550,0.177,0.069
1761841290.695,-75.560,0.177,0.069
1761841290.823,-75.570,0.172,0.065
1761841290.945,-75.580,0.179,0.071
1761841291.066,-75.590,0.183,0.075
1761841291.187,-75.600,0.189,0.081
1761841291.308,-75.610,0.183,0.075
1761841291.433,-75.620,0.181,0.073
1761841291.554,-75.630,0.177,0.069
1761841291.675,-75.640,0.177,0.069
1761841291.798,-75.650,0.174,0.067
1761841291.919,-75.660,0.183,0.075
1761841292.042,-75.670,0.189,0.081
1761841292.162,-75.680,0.179,0.071
1761841292.289,-75.690,0.174,0.067
1761841292.413,-75.700,0.177,0.069
1761841292.533,-75.710,0.177,0.069
1761841292.656,-75.720,0.189,0.081
1761841292.776,-75.730,0.181,0.073
1761841292.901,-75.740,0.189,0.081
1761841293.025,-75.750,0.183,0.075
1761841293.147,-75.760,0.187,0.079
1761841293.272,-75.770,0.187,0.079
1761841293.394,-75.780,0.191,0.083
1761841293.520,-75.790,0.189,0.081
1761841293.644,-75.800,0.191,0.083
1761841293.766,-75.810,0.179,0.071
1761841293.891,-75.820,0.189,0.081
1761841294.012,-75.830,0.185,0.077
1761841294.138,-75.840,0.197,0.089
1761841294.263,-75.850,0.187,0.079
1761841294.386,-75.860,0.193,0.085
1761841294.512,-75.870,0.185,0.077
1761841294.632,-75.880,0.193,0.085
1761841294.756,-75.890,0.206,0.098
1761841294.881,-75.900,0.193,0.085
1761841295.003,-75.910,0.187,0.079
1761841295.128,-75.920,0.187,0.079
1761841295.251,-75.930,0.187,0.079
1761841295.376,-75.940,0.189,0.081
1761841295.501,-75.950,0.193,0.085
1761841295.622,-75.960,0.191,0.083
1761841295.748,-75.970,0.183,0.075
1761841295.869,-75.980,0.181,0.073
1761841295.994,-75.990,0.185,0.077
1761841296.119,-76.000,0.195,0.087
1761841296.240,-76.010,0.195,0.087
1761841296.366,-76.020,0.185,0.077
1761841296.487,-76.030,0.189,0.081
1761841296.612,-76.040,0.187,0.079
1761841296.735,-76.050,0.187,0.079
1761841296.853,-76.060,0.193,0.085
1761841296.976,-76.070,0.191,0.083
1761841297.097,-76.080,0.193,0.085
1761841297.224,-76.090,0.189,0.081
1761841297.348,-76.100,0.187,0.079
1761841297.469,-76.110,0.185,0.077
1761841297.593,-76.120,0.185,0.077
1761841297.714,-76.130,0.191,0.083
1761841297.839,-76.140,0.191,0.083
1761841297.965,-76.150,0.193,0.085
1761841298.084,-76.160,0.189,0.081
1761841298.208,-76.170,0.191,0.083
1761841298.328,-76.180,0.201,0.094
1761841298.454,-76.190,0.195,0.087
1761841298.577,-76.200,0.189,0.081
1761841298.699,-76.210,0.185,0.077
1761841298.823,-76.220,0.181,0.073
1761841298.945,-76.230,0.189,0.081
1761841299.077,-76.240,0.189,0.081
1761841299.202,-76.250,0.189,0.081
1761841299.324,-76.260,0.189,0.081
1761841299.448,-76.270,0.189,0.081
1761841299.571,-76.280,0.191,0.083
1761841299.697,-76.290,0.189,0.081
1761841299.819,-76.300,0.185,0.077
1761841299.941,-76.310,0.183,0.075
1761841300.064,-76.320,0.179,0.071
1761841300.186,-76.330,0.185,0.077
1761841300.313,-76.340,0.191,0.083
1761841300.435,-76.350,0.191,0.083
1761841300.556,-76.360,0.187,0.079
1761841300.679,-76.370,0.185,0.077
1761841300.804,-76.380,0.179,0.071
1761841300.931,-76.390,0.187,0.079
1761841301.054,-76.400,0.181,0.073
1761841301.174,-76.410,0.195,0.087
1761841301.296,-76.420,0.183,0.075
1761841301.415,-76.430,0.185,0.077
1761841301.541,-76.440,0.185,0.077
1761841301.663,-76.450,0.187,0.079
1761841301.789,-76.460,0.183,0.075
1761841301.911,-76.470,0.189,0.081
1761841302.031,-76.480,0.187,0.079
1761841302.159,-76.490,0.185,0.077
1761841302.281,-76.500,0.189,0.081
1761841302.403,-76.510,0.189,0.081
1761841302.525,-76.520,0.181,0.073
1761841302.645,-76.530,0.189,0.081
1761841302.773,-76.540,0.189,0.081
1761841302.895,-76.550,0.185,0.077
1761841303.017,-76.560,0.181,0.073
1761841303.141,-76.570,0.187,0.079
1761841303.262,-76.580,0.183,0.075
1761841303.388,-76.590,0.185,0.077
1761841303.510,-76.600,0.185,0.077
1761841303.631,-76.610,0.164,0.056
1761841303.753,-76.620,0.114,0.006
1761841303.874,-76.630,0.075,-0.033
1761841304.000,-76.640,0.013,-0.095
1761841304.123,-76.650,-0.079,-0.187
1761841304.245,-76.660,-0.176,-0.284
1761841304.368,-76.670,-0.228,-0.336
1761841304.491,-76.680,-0.332,-0.440
1761841304.618,-76.690,-0.425,-0.533
1761841304.738,-76.700,-0.502,-0.610
1761841304.858,-76.710,-0.556,-0.664
1761841304.981,-76.720,-0.645,-0.753
1761841305.102,-76.730,-0.726,-0.834
1761841305.229,-76.740,-0.809,-0.917
1761841305.352,-76.750,-0.871,-0.979
1761841305.474,-76.760,-0.983,-1.091
1761841305.597,-76.770,-1.099,-1.207
1761841305.718,-76.780,-1.234,-1.342
1761841305.844,-76.790,-1.307,-1.415
1761841305.967,-76.800,-1.444,-1.552
1761841306.093,-76.810,-1.570,-1.678
1761841306.237,-76.820,-1.728,-1.836
1761841306.359,-76.830,-1.811,-1.919
1761841306.485,-76.840,-1.996,-2.104
1761841306.608,-76.850,-2.147,-2.255
1761841306.729,-76.860,-2.307,-2.415
1761841306.850,-76.870,-2.415,-2.523
1761841306.978,-76.880,-2.595,-2.703
1761841307.105,-76.890,-2.799,-2.907
1761841307.227,-76.900,-2.983,-3.091
1761841307.348,-76.910,-3.124,-3.232
1761841307.472,-76.920,-3.359,-3.467
1761841307.594,-76.930,-3.593,-3.701
1761841307.720,-76.940,-3.826,-3.934
1761841307.842,-76.950,-3.950,-4.058
1761841307.964,-76.960,-4.174,-4.282
1761841308.087,-76.970,-4.423,-4.531
1761841308.209,-76.980,-4.635,-4.743
1761841308.334,-76.990,-4.739,-4.847
1761841308.460,-77.000,-5.013,-5.120
1761841308.587,-77.010,-5.257,-5.365
1761841308.715,-77.020,-5.508,-5.616
1761841308.837,-77.030,-5.677,-5.784
1761841308.974,-77.040,-5.909,-6.017
1761841309.099,-77.050,-6.143,-6.251
1761841309.220,-77.060,-6.407,-6.515
1761841309.342,-77.070,-6.577,-6.685
1761841309.463,-77.080,-6.847,-6.955
1761841309.589,-77.090,-7.108,-7.216
1761841309.710,-77.100,-7.380,-7.488
1761841309.830,-77.110,-7.546,-7.654
1761841309.951,-77.120,-7.824,-7.932
1761841310.071,-77.130,-8.108,-8.216
1761841310.197,-77.140,-8.372,-8.480
1761841310.318,-77.150,-8.571,-8.679
1761841310.439,-77.160,-8.917,-9.025
1761841310.561,-77.170,-9.233,-9.341
1761841310.683,-77.180,-9.552,-9.660
1761841310.811,-77.190,-9.791,-9.899
1761841310.935,-77.200,-10.129,-10.237
Total_Measurement_Time(s),43.903
